File: example/Fe/As_200e_39_02.xdi
# XDI/1.0 GSE/1.0
# Scan-start_time: 2024-10-06T11:30:56
# Column.1: energy eV
# Column.2: I0_eh2
# Column.3: I1_eh2
# Column.4: IX_eh2
# Column.5: IR_eh2
# Column.6: c8
# Column.7: c9
# Column.8: fluo01
# Column.9: fluo02
# Column.10: fluo03
# Column.11: fluo04
# Column.12: fluo05
# Column.13: fluo06
# Column.14: fluo07
# Column.15: fluo08
# Column.16: fluo09
# Column.17: fluo10
# Column.18: fluo11
# Column.19: fluo12
# Column.20: fluo13
# Column.21: I0_eh1
# Column.22: I1_eh1
# Column.23: IX_eh1
# Mono.name: Si 111
# Mono.d_spacing: 3.134692
# Mono.notes: LNT cooled
# Beamline.name: BM08-LISA
# Facility.name: ESRF
# Facility.xray_source: Bending magnet
# ---------
# BraggEnergy I0_eh2 I1_eh2 IX_eh2 IR_eh2 c8 c9    fluo01   fluo02   fluo03 fluo04   fluo05   fluo06   fluo07   fluo08   fluo09   fluo10   fluo11   fluo12 fluo13 I0_eh1 I1_eh1 IX_eh1
 11725.7  87359 162166  38790    0  0  0  962.495  1783.38  1091.79    0  1494.95  1491.23  1851.61  1522.15  1650.08  1261.34  1869.38  1175.93    0  11340    0 2000029
 11775.1  86933 163820  38848    0  0  0  1060.23  1903.84  1078.62    0  1658.51  1671.53  2046.22  1668.57  1900.6  1747.04  2080.3  1215.48    0  11269    0 2000029
 11824.7  86459 165284  38767    0  0  0  1591.1  2999.33  1577.49    0  2461.63  2604.75  2838.04  2738.76  2861.09  2346.37  3151.01  1586.75    0  11202    0 2000029
 11859.9  85872 165369  38584    0  0  0  5491.28 10330.3  5264.6    0  9149.89  9427.51  9629.83  9785.88 10122.1  2797.12 11234.6  4769.49    0  11113    0 2000028
 11861.9  85891 165332  38603    0  0  0  6609.57 12767.2  6482.67    0 11035.5 11695.3 11724 11797.7 12527.9  4348.66 13418.3  5560.32    0  11106    0 2000028
 11863.9  85977 165338  38528    0  0  0  8425.86 15664.7  8205.19    0 13896.7 14425 14554.2 14511.8 15453.1  1042.04 16774.8  6934.47    0  11119    0 2000029
 11865.9  85950 164998  38480    0  0  0 10900.7 21019.2 10825.1    0 17872.4 19185.9 18954.1 19553.7 20391.8  1258.81 21799.1  9108.92    0  11105    0 2000028
 11867.8  85894 164301  38411    0  0  0 15582.8 29847.7 15475.6    0 26333.8 27814.4 27639.5 28150.9 29451.2  2112.63 31599.3 12909.2    0  11063    0 2000028
 11869.8  85908 162753  38510    0  0  0 27080.6 51926.7 27241.7    0 46049.9 49420.9 47974.6 49053.4 51056.5  7206.44 54814.3 22172.8    0  11111    0 2000028
 11871.8  85862 156575  38203    0  0  0 70103.6 135108 71549.6    0 120321 127844 122916 128031 129443 12020.5 140330 56253.4    0  11108    0 2000028
 11873.7  85803 143259  38078    0  0  0 164528 308751 167059    0 273731 289479 279050 287743 293119 34252.8 318509 135929    0  11102    0 2000028
 11875.7  85630 138167  38041    0  0  0 210028 398769 216352    0 350320 372282 358389 371268 373954 92361.5 404637 176239    0  11079    0 2000028
 11877.7  84671 125620  38222    0  0  0 310692 569044 320145    0 505451 535871 518373 528303 527542 37490 575694 263259    0  10962    0 2000028
 11879.7  85267 139378  38432    0  0  0 227981 428312 233693    0 373227 399313 385397 397868 401485 85481.1 431596 193044    0  10988    0 2000027
 11881.7  85408 146952  38473    0  0  0 164097 310343 167515    0 273347 291140 283320 287143 294772 118217 319843 139873    0  11004    0 2000028
 11883.7  85700 148188  38469    0  0  0 156566 298860 161291    0 263627 278844 274716 279562 280042 138973 308443 131949    0  11033    0 2000029
 11885.7  85643 148622  38482    0  0  0 153705 292297 158105    0 258217 272703 267262 271592 275532 97507.5 301387 128609    0  11069    0 2000029
 11887.7  85588 149136  38438    0  0  0 146886 282932 152640    0 249820 263529 260773 264104 266236 119735 292012 122649    0  11063    0 2000029
 11889.7  85490 149223  38232    0  0  0 147238 281524 150038    0 247071 262152 256876 261277 264597 111678 288308 123283    0  11055    0 2000028
 11891.7  85314 149071  37846    0  0  0 147371 277711 150074    0 246386 260419 255025 260342 263774 37672.9 286644 124148    0  11035    0 2000028
 11893.7  84475 147937  38143    0  0  0 142206 271484 145463    0 239825 253770 249267 252878 257442 74466.6 280155 118416    0  10933    0 2000029
 11895.7  82746 145367  38534    0  0  0 136187 258784 138722    0 229082 242740 237772 242576 246254 17725.3 267348 114693    0  10725    0 2000029
 11897.7  85699 151052  38643    0  0  0 138054 261061 139601    0 230601 243259 238273 244059 247042 28619.8 269941 114670    0  11081    0 2000029
 11899.7  85618 151324  38660    0  0  0 133473 255121 136186    0 224139 236156 232879 236524 239542 73443.6 261170 111880    0  11071    0 2000028
 11901.7  85548 151902  38626    0  0  0 129144 245389 131616    0 217614 230520 227106 229849 233971 36730.4 255330 107589    0  11029    0 2000028
 11903.6  85506 152461  38652    0  0  0 124950 237646 126700    0 209332 223055 217368 222106 225651 95979.3 245106 104114    0  11043    0 2000029
 11907.5  85367 153781  38649    0  0  0 109782 214155 114006    0 189927 200429 194923 200410 200814 32588.2 221259 91511.5    0  11026    0 2000028
 11913.3  85346 154786  38683    0  0  0 105743 200639 106779    0 177041 187626 181992 187705 191799 93993.8 206086 88745.8    0  11025    0 2000028
 11919.7  85253 154242  38535    0  0  0 110678 209354 110617    0 185077 194925 190943 195801 199244 80903.6 215614 91623.9    0  11007    0 2000028
 11926.3  85151 153417  38602    0  0  0 118254 221277 118402    0 197417 208244 202634 207877 211828 34986 230704 98238.8    0  10994    0 2000029
 11933.6  85056 152444  38510    0  0  0 122803 236743 126889    0 208615 221206 217351 220760 222576 82504.2 243883 102267    0  10979    0 2000029
 11941.2  85005 151600  38571    0  0  0 132479 253634 136048    0 223651 237808 233121 236831 241223 70332.7 262773 112311    0  10965    0 2000028
 11949.4  84911 151351  38572    0  0  0 135813 259006 138784    0 228347 242055 236566 241117 242722 88102.7 267844 111803    0  10957    0 2000028
 11957.9  84814 151577  38624    0  0  0 137746 259892 138859    0 230681 242361 238474 243236 246519 83646.8 267356 115024    0  10938    0 2000028
 11967.2  84719 151892  38657    0  0  0 137410 257387 137816    0 227563 240042 235684 238933 244864 93029.7 265187 113611    0  10919    0 2000028
 11976.9  84572 152123  38288    0  0  0 135915 257038 136933    0 227564 239120 234611 239668 244494 123008 266178 114454    0  10896    0 2000029
 11987.2  84187 152403  38546    0  0  0 130036 246568 132371    0 217474 230345 225596 229282 235608 109922 254513 109305    0  10846    0 2000028
 11997.9  84300 153466  38443    0  0  0 124892 239365 129301    0 211861 223174 218517 223792 226217 105310 246471 103383    0  10856    0 2000028
 12009  84168 153680  38406    0  0  0 126617 240714 128453    0 212549 225583 221638 225231 227321 109720 248363 105239    0  10843    0 2000028
 12020.5  84039 153560  38348    0  0  0 128595 244221 130942    0 216126 229148 222690 226938 230638 60942.6 250888 106261    0  10819    0 2000028
 12032.5  83921 153496  38277    0  0  0 131678 248643 132976    0 220571 231657 226958 232788 235227 97298.9 255844 110114    0  10801    0 2000029
 12044.9  83812 153539  38229    0  0  0 133988 252299 135821    0 225093 235866 231118 235378 242438 119470 262455 112780    0  10788    0 2000028
 12057.8  83661 153702  38244    0  0  0 133545 253361 137193    0 224215 237165 232891 237184 242186 124015 263850 113981    0  10761    0 2000029
 12071  83504 153910  38050    0  0  0 132577 253354 136346    0 225571 238300 233616 237487 240950 114810 262581 111101    0  10738    0 2000028
 12084.5  83355 154154  37986    0  0  0 132221 256387 137112    0 226287 238297 233880 238851 240402 72088.8 263147 111023    0  10713    0 2000028
 12098.9  83188 154535  37882    0  0  0 132913 252795 135365    0 223936 236919 232173 234734 239203 19297.5 260682 110158    0  10688    0 2000028
 12113.7  82970 154770  37963    0  0  0 134216 251562 134787    0 222766 235522 229998 235194 239829 15663.2 259899 112091    0  10651    0 2000028
 12129  82856 155283  37787    0  0  0 133250 250672 134065    0 221696 234911 228412 232304 238225 23335 260072 111979    0  10638    0 2000027
 12144.8  82525 155199  37718    0  0  0 132960 250921 133535    0 222518 233695 229956 234279 237963 18646.1 257883 111208    0  10601    0 2000028
 12161.2  82509 155746  37670    0  0  0 133582 254378 137115    0 224438 238394 232916 236650 241059 38797 261577 111622    0  10587    0 2000028
 12178.2  82215 155789  37649    0  0  0 132056 254500 137065    0 224039 237635 233247 236898 238815 29338.4 262010 111051    0  10543    0 2000028
 12195.6  82174 156314  37642    0  0  0 136124 256575 137323    0 227428 239973 234894 238418 244906 93308 264472 114056    0  10524    0 2000028
 12213.3  81969 156610  37583    0  0  0 132906 255835 136821    0 226409 241092 235853 239143 242665 96691.7 265677 112862    0  10501    0 2000029
 12231.5  81683 156751  37433    0  0  0 135488 256423 137832    0 226718 240834 236250 240201 244937 86868.7 265594 113616    0  10460    0 2000028
 12250.3  80988 156086  36360    0  0  0 133706 255048 136511    0 224919 237363 232135 236665 239663 50638.2 263449 111902    0  10373    0 2000028
 12269.6  81561 158098  37575    0  0  0 134558 257358 138791    0 227434 240738 235007 239673 244491 19948.9 266139 113234    0  10436    0 2000028
 12289.6  81305 158350  37496    0  0  0 136610 257199 138239    0 227402 241495 235352 240939 245278 21642.3 266072 113573    0  10389    0 2000028
 12309.9  81019 158591  37360    0  0  0 135829 257642 138905    0 227910 240966 236228 240775 244226 78288 266953 113533    0  10354    0 2000028
 12330.6  80739 158837  37187    0  0  0 136068 258313 139188    0 227379 240942 235130 240368 245187 47327.4 265133 114539    0  10310    0 2000028
 12351.8  80553 159246  37289    0  0  0 134159 258997 139491    0 227173 241418 235667 240840 244894 92853.6 268542 113447    0  10285    0 2000028
 12373.3  80306 159613  37263    0  0  0 133846 258885 139652    0 226858 242895 235101 240496 242181 57592 267295 112058    0  10248    0 2000029
 12395.4  79958 159746  37057    0  0  0 133720 257949 139182    0 227356 242510 235667 241072 244101 111535 267066 112632    0  10197    0 2000028
 12417.9  79700 160095  36961    0  0  0 137607 258549 139866    0 229187 242289 237167 242020 246915 123751 266222 114776    0  10161    0 2000028
 12422.5  79658 160188  36942    0  0  0 134324 260671 138916    0 227938 242116 237977 241068 242908 121358 265608 112736    0  10148    0 2000028