File: example/Fe/As_200e_38_01.xdi
# XDI/1.0 GSE/1.0
# Scan-start_time: 2024-10-06T10:33:36
# Column.1: energy eV
# Column.2: I0_eh2
# Column.3: I1_eh2
# Column.4: IX_eh2
# Column.5: IR_eh2
# Column.6: c8
# Column.7: c9
# Column.8: fluo01
# Column.9: fluo02
# Column.10: fluo03
# Column.11: fluo04
# Column.12: fluo05
# Column.13: fluo06
# Column.14: fluo07
# Column.15: fluo08
# Column.16: fluo09
# Column.17: fluo10
# Column.18: fluo11
# Column.19: fluo12
# Column.20: fluo13
# Column.21: I0_eh1
# Column.22: I1_eh1
# Column.23: IX_eh1
# Mono.name: Si 111
# Mono.d_spacing: 3.134692
# Mono.notes: LNT cooled
# Beamline.name: BM08-LISA
# Facility.name: ESRF
# Facility.xray_source: Bending magnet
# ---------
# BraggEnergy I0_eh2 I1_eh2 IX_eh2 IR_eh2 c8 c9    fluo01   fluo02    fluo03 fluo04   fluo05   fluo06   fluo07   fluo08   fluo09    fluo10   fluo11   fluo12 fluo13 I0_eh1 I1_eh1 IX_eh1
 11725.6  87426 172532  38791    0  0  0  852.662  1503.02  927.95    0  1313.75  1317.94  1660.34  1268.09  1475.05  1170.16  1650.45  1071.03    0  11370    0 2000029
 11774.9  87019 174151  38829    0  0  0  941.164  1602.57  932.13    0  1336.38  1402.67  1673.41  1414.33  1631.65  3734.29  1711.08  1119.66    0  11261    0 2000028
 11824.5  86556 175598  38850    0  0  0  1098.54  2116.72  1109.47    0  1811.58  1787.74  2102.95  1888.05  1972.34  2292.06  2169.11  1263.04    0  11184    0 2000029
 11859.6  86025 176016  38709    0  0  0  3133.07  5988.92  3052.26    0  5096.67  5457.13  5784.84  5489.19  5817.48  2425.23  6358.34  2923.33    0  11110    0 2000028
 11861.6  85925 175800  38703    0  0  0  3768.59  7067.18  3604.83    0  6093.68  6315.96  6676.74  6477.32  6911.82  3364.33  7331.44  3282.29    0  11136    0 2000028
 11863.6  86087 176052  38732    0  0  0  4549.74  8793.22  4491.94    0  7578.02  7877.09  8279.63  8103.62  8348.28  3537.53  9185.29  4018.87    0  11147    0 2000028
 11865.5  86055 175877  38804    0  0  0  5993.62 11388.6  5872.13    0  9808.48 10347.1 10651.8 10544.3 10816.2  3904.57 12046.2  5062.21    0  11147    0 2000028
 11867.5  86004 175491  38746    0  0  0  8615.88 16369.1  8462.36    0 14136.5 15043.2 15154.1 15485.5 15583.6  5695.67 17209.1  7153.74    0  11143    0 2000028
 11869.4  86012 174855  38831    0  0  0 14731.2 27804.9 14261.6    0 24147.2 25320.8 25693.3 26313 26744.5  4405.4 29011.9 12008.4    0  11142    0 2000029
 11871.4  85970 172154  38763    0  0  0 36557.8 69816.8 36521.7    0 61328.4 65450.6 64229.3 66333.4 67510.3 10592.2 73665.2 29045.6    0  11137    0 2000027
 11873.4  85919 164509  38550    0  0  0 103066 192930 102247    0 170657 181051 175644 181035 185477 88614.6 198926 84291.8    0  11134    0 2000028
 11875.4  85787 161996  38477    0  0  0 126006 238906 127391    0 213262 222947 220805 224095 227397 18113.5 247009 105073    0  11095    0 2000028
 11877.3  84782 156677  38603    0  0  0 167148 319353 170552    0 279983 295599 292283 295647 298925 151063 327505 141017    0  10951    0 2000028
 11879.3  85286 160420  38705    0  0  0 141225 271597 145545    0 239772 252025 252211 254549 254686 138231 280895 119635    0  11054    0 2000028
 11881.3  85357 164750  38863    0  0  0 97107 190303 100494    0 167812 176030 173102 177594 177921 97672.6 195676 81802.6    0  11065    0 2000029
 11883.4  85776 166049  38886    0  0  0 94028.1 182304 95632.9    0 161498 168917 166251 170568 171158 89229.9 187230 77792.9    0  11115    0 2000029
 11885.4  85721 166192  38819    0  0  0 92917.5 178079 93876.1    0 157613 165784 162490 165952 167858 90463.8 183163 77437.5    0  11113    0 2000028
 11887.3  85666 166455  38797    0  0  0 89693.3 171629 90565.2    0 153008 159277 155656 160820 163170 84395.3 177349 74733.2    0  11104    0 2000028
 11889.3  85584 166563  38643    0  0  0 87832.4 169283 88755.4    0 149620 156432 154399 158467 160408 86189.6 174174 73514.3    0  11094    0 2000029
 11891.2  85451 166372  38331    0  0  0 87458.1 166671 88157.7    0 148799 155642 152072 155497 158362 79966.6 171085 73353.6    0  11073    0 2000028
 11893.3  84921 165490  38383    0  0  0 84044.8 163888 86656.2    0 145241 152766 149027 154055 153899 80619.9 168445 69633.7    0  11004    0 2000028
 11895.2  82176 160259  38779    0  0  0 81383.8 156531 82089.9    0 138079 144601 141816 145505 147072 79593.1 159397 67456.2    0  10671    0 2000028
 11897.2  85739 167512  38981    0  0  0 81357.8 159211 83225.1    0 140430 147897 144707 148577 149703 73104.1 164081 67461.9    0  11098    0 2000027
 11899.2  85709 167636  38952    0  0  0 79984.1 154931 81248.9    0 137212 144859 141016 145337 146153 67288.3 158914 66220.9    0  11098    0 2000028
 11901.2  85636 167751  39004    0  0  0 78873.1 151484 79478.3    0 134847 141028 138169 142223 142771 71652.1 155975 65875.7    0  11084    0 2000028
 11903.2  85582 167935  38986    0  0  0 75176.9 146708 77014    0 130135 136167 134050 137789 138717 72710.7 150874 62684.7    0  11080    0 2000028
 11907  85478 168692  39006    0  0  0 69994.6 133426 70380.8    0 118336 123784 121391 124673 126448 61948.1 137289 57762.3    0  11065    0 2000029
 11912.8  85425 169236  39025    0  0  0 64962 124109 65432.2    0 111287 116326 113968 117006 119496 64006.6 129156 54215.6    0  11054    0 2000028
 11919  85340 168900  38978    0  0  0 67120.2 131026 68630.3    0 115862 121563 118707 123001 123943 64468.4 134887 56162.4    0  11044    0 2000029
 11925.7  85235 168475  38936    0  0  0 71638.7 140263 73151.4    0 122845 130518 126457 130891 130993 67581.7 143526 58905.2    0  11030    0 2000028
 11933  85131 167907  38870    0  0  0 76800 150595 79471.7    0 132075 140090 136861 140944 140434 75522.2 154402 63326.7    0  11014    0 2000029
 11940.6  85087 167555  39011    0  0  0 83621.3 161099 84333.4    0 141373 148719 145749 150075 152543 81115.9 164803 69423.3    0  11009    0 2000028
 11948.7  84985 167413  38908    0  0  0 85296.1 165210 86268.5    0 145647 153544 150468 154628 155777 83514 170074 70132    0  10991    0 2000028
 11957.3  84886 167620  38957    0  0  0 86813.7 164441 86547.2    0 145812 154129 150531 153950 157186 79148.3 168567 71798    0  10977    0 2000028
 11966.5  84788 167830  38995    0  0  0 84506.9 163034 86480.4    0 144115 151556 149813 152874 153686 72903.9 167843 69886.4    0  10958    0 2000028
 11976.1  84656 168025  38781    0  0  0 84162.5 162791 85199.7    0 143816 151479 147524 152209 153303 77367.3 166034 70041.1    0  10945    0 2000028
 11986.4  84160 167665  38807    0  0  0 80699.8 157071 82908.9    0 138495 146168 143418 148144 148741 76034.8 160665 66548.1    0  10877    0 2000028
 11997.1  84356 168735  38740    0  0  0 79950 154033 80883.3    0 136044 143186 140027 144295 146049 65750.1 158867 66562.5    0  10860    0 2000027
 12008.2  84224 168934  38662    0  0  0 80405.6 153177 81133.5    0 136271 143009 139573 143992 145422 74262.5 157314 66225.1    0  10870    0 2000028
 12019.8  84082 168902  38558    0  0  0 81567.6 156105 82151.8    0 139041 146078 142359 147580 148316 76042.6 161773 67675.7    0  10865    0 2000028
 12031.8  83941 168906  38599    0  0  0 84136.7 160236 84590.5    0 142589 149897 146029 150345 153198 76602.4 165141 70803.8    0  10842    0 2000028
 12044.2  83840 169075  38526    0  0  0 83168.1 163206 85646.6    0 145196 151437 148568 152547 153115 75985.4 166848 69178.4    0  10822    0 2000029
 12057.1  83689 169270  38483    0  0  0 85834.1 165215 86833.9    0 145906 153491 149605 154356 156564 72909.8 169292 71399.9    0  10803    0 2000027
 12070.4  83537 169428  38324    0  0  0 85033.2 165154 86377.7    0 146326 154632 149594 154885 156011 56949.6 170194 71243.5    0  10775    0 2000027
 12083.9  83382 169676  38249    0  0  0 86856.1 165045 87231.4    0 146002 153625 149756 155125 156149 61488.2 169491 71550    0  10764    0 2000028
 12098.4  83204 169922  38148    0  0  0 86539.3 165714 86736.9    0 146936 154079 151160 155776 157308 78950.4 170605 72076.8    0  10741    0 2000029
 12113.1  83030 170239  38188    0  0  0 84720.9 164258 86648.5    0 144778 152696 150245 154458 155145 72406.6 169443 70933.5    0  10710    0 2000028
 12128.4  82848 170462  38003    0  0  0 85604.7 165064 86778    0 146143 154063 150545 154666 156289 72757.2 170023 71275.9    0  10683    0 2000029
 12144.3  82643 170637  37874    0  0  0 84405.2 165009 87524.4    0 147031 154463 151118 154808 154898 82224.1 170603 70278.3    0  10651    0 2000029
 12160.6  82498 170946  37795    0  0  0 86206 165605 87345.3    0 147713 154523 151934 155956 156434 82930.3 170514 71285.6    0  10626    0 2000028
 12177.6  82272 171133  37756    0  0  0 87701.3 167187 88274.5    0 147871 155800 152741 155623 159072 70637.2 172366 73104    0  10600    0 2000028
 12195  82126 171492  37663    0  0  0 88159.6 167659 89242.6    0 149331 158038 153968 157676 160771 56374.5 172693 72891.8    0  10530    0 2000028
 12212.8  81942 171832  37666    0  0  0 88689.4 170122 89562    0 150387 158721 155161 159178 161081 74089.2 174382 74115.9    0  10547    0 2000028
 12231.1  81667 171994  37353    0  0  0 87692.7 170499 89896.3    0 150925 158913 154715 159706 160837 30850.7 174365 72593.1    0  10505    0 2000028
 12249.9  81010 171341  36448    0  0  0 85971.9 168863 89586.5    0 148939 156824 153035 157675 157686 42939.6 173151 70829.4    0  10382    0 2000028
 12269.2  81528 173294  37349    0  0  0 89550.6 170172 90460.5    0 151657 159524 155572 160109 161825 14094.8 175289 73916.3    0  10439    0 2000028
 12289.2  81263 173525  37220    0  0  0 87845.1 169918 90132.4    0 151136 158034 155269 160417 160251 41212.7 175573 72729.8    0  10447    0 2000028
 12309.5  80980 173744  37118    0  0  0 89399.6 170951 90588.4    0 152118 158242 155023 160182 161059 59556.9 174974 74317.6    0  10405    0 2000029
 12330.3  80702 173994  36890    0  0  0 88774 171125 90708.7    0 151233 159444 155293 160132 160911 84979.2 175822 73578.1    0  10323    0 2000028
 12351.4  80496 174387  36974    0  0  0 89324 172939 90877.2    0 152722 160878 157413 161490 163158 81619.4 177526 74356.4    0  10288    0 2000028
 12372.9  80248 174716  36898    0  0  0 89610 172723 91594.1    0 152394 161912 157084 161278 163127 28384 178253 74310.4    0  10299    0 2000028
 12395  79903 174852  36692    0  0  0 89254.9 172006 90074.5    0 152319 160140 155058 160203 163673 44043.2 176301 74329.3    0  10221    0 2000028
 12417.7  79637 175212  36587    0  0  0 89757.2 173055 90863.7    0 153305 160912 156847 161938 162598 56613.2 177382 75054.5    0  10184    0 2000028
 12422.3  79596 175301  36502    0  0  0 89728 171893 91363.7    0 153089 161545 157139 162023 162908 53796 177337 74641.7    0  10182    0 2000028