File: example/Fe/As_200e_38_02.xdi
# XDI/1.0 GSE/1.0
# Scan-start_time: 2024-10-06T10:50:55
# Column.1: energy eV
# Column.2: I0_eh2
# Column.3: I1_eh2
# Column.4: IX_eh2
# Column.5: IR_eh2
# Column.6: c8
# Column.7: c9
# Column.8: fluo01
# Column.9: fluo02
# Column.10: fluo03
# Column.11: fluo04
# Column.12: fluo05
# Column.13: fluo06
# Column.14: fluo07
# Column.15: fluo08
# Column.16: fluo09
# Column.17: fluo10
# Column.18: fluo11
# Column.19: fluo12
# Column.20: fluo13
# Column.21: I0_eh1
# Column.22: I1_eh1
# Column.23: IX_eh1
# Mono.name: Si 111
# Mono.d_spacing: 3.134692
# Mono.notes: LNT cooled
# Beamline.name: BM08-LISA
# Facility.name: ESRF
# Facility.xray_source: Bending magnet
# ---------
# BraggEnergy I0_eh2 I1_eh2 IX_eh2 IR_eh2 c8 c9    fluo01   fluo02    fluo03 fluo04   fluo05   fluo06   fluo07   fluo08   fluo09    fluo10   fluo11   fluo12 fluo13 I0_eh1 I1_eh1 IX_eh1
 11725.8  86318 166512  38304    0  0  0  835.406  1585.72  932.674    0  1305.25  1344.21  1598.73  1361.11  1556.86  1236.67  1666.16  1140.68    0  11208    0 2000027
 11775.1  85900 168073  38300    0  0  0  869.964  1705.4  927.207    0  1501.67  1522.77  1698.72  1532.8  1633.67  3409.87  1796.09  1109.71    0  11145    0 2000028
 11824.8  85433 169511  38361    0  0  0  1322.02  2507.18  1265.94    0  1941.98  2135.88  2369.79  2165.24  2373.68  3335.22  2540.56  1327.93    0  11066    0 2000029
 11859.9  84864 169710  38150    0  0  0  4108.05  7795.4  4045.36    0  6595.42  7008.29  7301.77  7267.83  7525.84  3419.12  8094.96  3589.1    0  10988    0 2000028
 11861.9  84889 169703  38160    0  0  0  4967.56  9251.96  4774.27    0  8013.57  8397.74  8578.68  8696.87  9037.81  3527.09  9825.41  4259.09    0  10985    0 2000028
 11863.9  84960 169766  38188    0  0  0  6035.01 11540.9  5940.91    0  9915.76 10688.8 10879 10788.7 11517.3  4207.45 12250  5108.25    0  10995    0 2000028
 11865.9  84943 169535  38248    0  0  0  8209.79 15140.5  7871.57    0 13420.8 13920 14111.1 14424.9 15218.3  674.68 16248.2  6749.66    0  10997    0 2000028
 11867.8  84895 169033  38218    0  0  0 11363.2 22226.3 11567.6    0 19281.6 20489 20593.9 21143 21701.7  8078.43 23353.2  9498.63    0  11015    0 2000028
 11869.8  84909 167939  38236    0  0  0 20465.3 39767 20632.5    0 34882 36581.9 36555.3 37471.9 38336  5410.79 41715.4 16512.1    0  11014    0 2000028
 11871.7  84863 163295  38094    0  0  0 56340 107235 56224    0 95811.6 101656 98027.1 101958 103903 33386.8 111774 44874    0  10968    0 2000028
 11873.7  84820 153185  37998    0  0  0 132730 253718 136772    0 224266 237884 232634 238429 239229 36657.1 263092 107923    0  10960    0 2000028
 11875.7  84647 150816  37919    0  0  0 160373 302857 161927    0 268094 282801 277566 281401 286427 50154.1 312010 134899    0  10938    0 2000028
 11877.7  83696 143005  38068    0  0  0 225156 425268 230259    0 371254 394343 383685 391916 398963 87312 428608 190798    0  10863    0 2000028
 11879.7  84283 150651  38275    0  0  0 165281 316749 170364    0 278182 296837 289348 295988 298576 140769 326098 140355    0  10933    0 2000028
 11881.7  84417 155613  38365    0  0  0 122226 233849 124711    0 207399 219141 214860 219337 222457 109220 241572 102991    0  10950    0 2000028
 11883.7  84696 156642  38336    0  0  0 115775 225383 120586    0 199112 208943 206988 211097 210250 107181 231606 95864.7    0  10941    0 2000028
 11885.7  84644 156960  38317    0  0  0 114246 220710 117766    0 194644 205605 200151 205230 206878 90352.9 226188 95230.4    0  10975    0 2000028
 11887.7  84584 157314  38294    0  0  0 110565 213005 113249    0 187083 198315 194355 199210 199820 101917 218313 91461.9    0  10944    0 2000029
 11889.7  84501 157380  38178    0  0  0 111631 211103 111870    0 187412 197115 192697 197944 201044 91312.2 217907 92701.3    0  10917    0 2000028
 11891.6  84333 157195  37757    0  0  0 109354 209945 111645    0 185158 194570 191774 195559 198025 46059.8 214743 91099.2    0  10947    0 2000028
 11893.6  83533 155982  37999    0  0  0 107174 202729 107347    0 179738 189616 185121 190077 193521 90927.4 209778 88671.3    0  10837    0 2000028
 11895.6  81749 152964  38354    0  0  0 100580 193355 103120    0 171927 180497 176313 180654 182868 83782.8 199079 82999.5    0  10630    0 2000028
 11897.7  84719 158855  38531    0  0  0 102688 196755 103913    0 173326 183194 177404 183780 186540 93048.9 201596 85319.5    0  10981    0 2000029
 11899.7  84636 159018  38551    0  0  0 99324.8 192303 101789    0 169696 179305 175583 180520 181705 94170.7 197647 82190.7    0  10967    0 2000028
 11901.6  84572 159262  38559    0  0  0 96228.7 186688 99008    0 165122 173793 168981 175509 175521 89276.1 191775 79761.6    0  10961    0 2000027
 11903.6  84520 159592  38578    0  0  0 92809.3 177896 94409.1    0 157789 167361 162572 167374 168773 86280.7 183632 77693.6    0  10951    0 2000028
 11907.5  84376 160404  38511    0  0  0 83813.9 162329 86355.1    0 144010 152918 148130 152496 154398 79555.3 167305 69860.4    0  10933    0 2000028
 11913.3  84349 161104  38559    0  0  0 80104.5 152969 80030.1    0 136066 142805 139112 142922 146081 74004.8 157833 66604.2    0  10927    0 2000028
 11919.6  84243 160663  38456    0  0  0 83621.3 160012 84189.7    0 141280 148725 144075 150035 152542 26328.3 164153 69332.9    0  10919    0 2000028
 11926.3  84131 160030  38388    0  0  0 88377.1 169871 89908.5    0 150146 158190 153719 159425 161452 44061.1 174496 73883.7    0  10898    0 2000029
 11933.5  84019 159331  38307    0  0  0 93845.4 182237 97089    0 161022 169943 165373 170916 171833 88530.8 186264 77608.9    0  10886    0 2000029
 11941.2  83982 158801  38354    0  0  0 101436 195587 104033    0 172616 182717 177556 181941 184464 94553.8 200562 83547.1    0  10878    0 2000029
 11949.3  83887 158675  38274    0  0  0 104052 199729 106171    0 176785 186054 182143 186621 189063 97983.8 205986 87377.4    0  10856    0 2000028
 11957.9  83792 158922  38245    0  0  0 103005 198300 105225    0 175235 185116 180402 185900 188508 98811.8 203547 85121.2    0  10850    0 2000028
 11967.1  84235 160224  38468    0  0  0 106015 199523 105795    0 176524 186177 181406 186572 190263 84720.8 203602 87365.5    0  10903    0 2000028
 11976.8  86028 164280  38950    0  0  0 104177 200633 106904    0 178577 189752 184370 189722 190821 63324.8 208299 87464.7    0  11111    0 2000029
 11987.1  86170 165353  39232    0  0  0 101943 194723 104561    0 172962 183286 177885 183217 185615 27406.5 200893 85004.9    0  11116    0 2000028
 11997.7  86735 167237  39357    0  0  0 98526.3 193127 102046    0 171245 180696 175323 180578 181910 53402.9 198181 83566    0  11179    0 2000028
 12008.9  86585 167392  39250    0  0  0 100101 192905 101765    0 170885 180050 174591 180413 182714 31739 197776 83399.1    0  11161    0 2000028
 12020.4  86435 167362  39081    0  0  0 104076 196059 103787    0 173451 183149 178068 183183 186093 57073.9 201143 85894.5    0  11138    0 2000028
 12032.4  86294 167326  39076    0  0  0 105062 200743 106699    0 177301 185534 181863 187061 188912 48507.7 205922 86586.3    0  11121    0 2000028
 12044.8  86175 167413  39045    0  0  0 107815 204281 108644    0 181768 191273 185629 191651 194991 97156.7 210526 89805.7    0  11102    0 2000028
 12057.7  86019 167628  38978    0  0  0 106297 205436 108843    0 181555 191775 186880 193120 193791 82719.1 210695 88979.9    0  11079    0 2000029
 12070.9  85856 167842  38905    0  0  0 106944 207038 110068    0 182752 192493 188496 192661 195013 93759.1 212333 89271.6    0  11059    0 2000028
 12084.5  85702 168107  38807    0  0  0 106557 205851 108574    0 182038 192231 187381 191955 193801 14139.8 210320 89888    0  11036    0 2000028
 12098.9  85525 168433  38672    0  0  0 107823 205095 109046    0 182141 191965 187594 192477 194508 94215.8 212008 89450.7    0  11004    0 2000028
 12113.6  85289 168650  38747    0  0  0 108066 204968 108799    0 182228 191251 186755 191592 195970 52667.4 211062 90752.6    0  10975    0 2000029
 12129  85162 169080  38543    0  0  0 105877 204164 108045    0 180761 190808 185646 189821 191660 21648.4 209352 88332    0  10953    0 2000028
 12144.8  84848 169063  38514    0  0  0 106071 203918 109245    0 180193 190213 185323 190642 193121 45160.4 209684 88484.6    0  10913    0 2000029
 12161.1  84807 169613  38381    0  0  0 106037 205465 109083    0 182586 191439 186940 192046 194432 90171.3 211131 89343.5    0  10904    0 2000029
 12178.1  84518 169653  38260    0  0  0 107820 207962 110338    0 182716 193913 187936 195085 195295 58390.4 211902 89461.7    0  10860    0 2000028
 12195.6  84454 170238  38293    0  0  0 108513 207677 110209    0 184508 193538 189339 194509 196944 21249.4 213177 90687.1    0  10851    0 2000028
 12213.3  84238 170536  38262    0  0  0 110673 209675 111198    0 185032 195422 190426 195102 199841 101521 215627 92608.8    0  10820    0 2000028
 12231.5  83957 170697  38089    0  0  0 109488 210497 111815    0 185485 196425 191063 195359 199428 100743 216083 91316    0  10782    0 2000028
 12250.3  83243 169979  37052    0  0  0 107648 208877 111224    0 183747 193805 188730 193529 196841 87687.9 213966 90341    0  10647    0 2000029
 12269.5  83825 172065  38109    0  0  0 109907 211297 111733    0 184974 196318 192014 196696 199854 74536.7 214752 91452.2    0  10743    0 2000028
 12289.5  83543 172300  38044    0  0  0 108029 209631 111775    0 184326 195606 190958 195550 196225 27542.5 215833 90525.2    0  10694    0 2000028
 12309.8  83266 172560  37921    0  0  0 110432 210833 112301    0 186495 196630 192131 196303 199788 99817 215814 93377    0  10674    0 2000028
 12330.5  82964 172813  37703    0  0  0 109793 211283 112687    0 186273 197387 192420 197047 198966 103142 216819 92343.8    0  10637    0 2000028
 12351.7  82768 173236  37885    0  0  0 109848 211432 113197    0 187831 197707 193314 198911 200611 92378.3 218353 92573.7    0  10597    0 2000028
 12373.2  82507 173548  37818    0  0  0 109452 210900 113060    0 187068 197064 192913 197173 198675 80438.4 218480 91407.6    0  10569    0 2000028
 12395.3  82161 173752  37660    0  0  0 110739 212311 112687    0 188493 198379 193734 197376 199370 99044.7 218980 91214.6    0  10512    0 2000029
 12417.9  81891 174114  37568    0  0  0 112185 214112 113493    0 188517 199440 194008 199787 202049 36160.8 219098 93746    0  10482    0 2000028
 12422.5  81847 174201  37502    0  0  0 112647 212422 113006    0 187223 199073 193295 198151 200886 22662.7 218439 93221.5    0  10476    0 2000029