File: example/Fe/As_200e_39_01.xdi
# XDI/1.0 GSE/1.0
# Scan-start_time: 2024-10-06T11:13:32
# Column.1: energy eV
# Column.2: I0_eh2
# Column.3: I1_eh2
# Column.4: IX_eh2
# Column.5: IR_eh2
# Column.6: c8
# Column.7: c9
# Column.8: fluo01
# Column.9: fluo02
# Column.10: fluo03
# Column.11: fluo04
# Column.12: fluo05
# Column.13: fluo06
# Column.14: fluo07
# Column.15: fluo08
# Column.16: fluo09
# Column.17: fluo10
# Column.18: fluo11
# Column.19: fluo12
# Column.20: fluo13
# Column.21: I0_eh1
# Column.22: I1_eh1
# Column.23: IX_eh1
# Mono.name: Si 111
# Mono.d_spacing: 3.134692
# Mono.notes: LNT cooled
# Beamline.name: BM08-LISA
# Facility.name: ESRF
# Facility.xray_source: Bending magnet
# ---------
# BraggEnergy I0_eh2 I1_eh2 IX_eh2 IR_eh2 c8 c9    fluo01   fluo02    fluo03 fluo04   fluo05   fluo06   fluo07   fluo08   fluo09    fluo10   fluo11   fluo12 fluo13 I0_eh1 I1_eh1 IX_eh1
 11725.8  88470 166082  39814    0  0  0  920.286  1680.09  1031.52    0  1447.85  1490.38  1760.34  1527.65  1694.57  1169.49  1815.2  1149.5    0  11499    0 2000028
 11775.1  88036 167767  39829    0  0  0  1017.05  1911.57  1016.48    0  1601.55  1694.44  1963.53  1668.34  1738.71  2954.59  1981  1163.29    0  11427    0 2000029
 11824.7  87548 169296  39810    0  0  0  1539.87  2809.59  1546.65    0  2401.69  2485.16  2780.49  2511.59  2664.52  3789.52  2982.38  1557.93    0  11344    0 2000028
 11859.9  86968 169450  39591    0  0  0  5125.73 10037.6  5036.62    0  8417.57  8863.9  9172.76  9196.25  9458.78  3106.08 10286.6  4310.34    0  11262    0 2000028
 11861.9  86988 169434  39614    0  0  0  6262.35 11792.6  6091.77    0 10124.2 10833.4 11081.2 10968.5 11577.4  3043.8 12206.9  5184.35    0  11266    0 2000028
 11863.9  87075 169452  39673    0  0  0  7769.25 14570.7  7752.32    0 12506.5 13476 13701.6 13584.8 14334  2578.4 15635.9  6427.25    0  11272    0 2000028
 11865.8  87046 169138  39647    0  0  0 10217.1 19155.9  9950.52    0 16689.1 17881.9 17663.5 18043 19014.3  1110.02 20335.5  8530.59    0  11232    0 2000028
 11867.8  86994 168481  39545    0  0  0 14764.4 27835.4 14457.7    0 24362.6 25712.5 25559.8 26095.1 27443  7063.23 29414.5 11979    0  11226    0 2000029
 11869.7  87002 167162  39514    0  0  0 25737.9 49364 25319    0 43013.4 46067.5 45053 45859.2 48159.7 11708.8 51852.1 21035.3    0  11226    0 2000029
 11871.7  86947 161421  39309    0  0  0 67325.8 127821 67061.3    0 113931 121563 116321 120872 123588 45835.8 133913 54006.3    0  11254    0 2000028
 11873.7  86891 148864  39165    0  0  0 153841 292341 158538    0 260338 275952 268498 274107 277282 35536.3 302406 126679    0  11249    0 2000028
 11875.7  86721 144820  39148    0  0  0 195536 372868 200337    0 326372 347156 334590 344952 346400 133784 377743 162553    0  11218    0 2000029
 11877.7  85740 133672  39206    0  0  0 288217 524897 294954    0 472153 499306 483809 491487 493518 31484.4 536414 242817    0  11100    0 2000028
 11879.7  86347 143863  39387    0  0  0 212935 404681 218986    0 353155 375859 363138 372945 376968 190162 407994 180318    0  11170    0 2000027
 11881.7  86490 150851  39476    0  0  0 153706 292265 157150    0 258800 271987 265173 270820 275610 142766 300089 130007    0  11183    0 2000028
 11883.7  86776 152053  39443    0  0  0 149244 283185 152185    0 249679 263499 257954 262378 268496 131793 290601 125701    0  11177    0 2000028
 11885.7  86722 152515  39407    0  0  0 142964 278085 148241    0 243112 258874 252854 257449 259762 62625.1 285839 120635    0  11215    0 2000028
 11887.7  86665 153013  39264    0  0  0 140626 268662 143759    0 236922 249886 246065 249931 253540 124239 275133 118149    0  11203    0 2000028
 11889.7  86564 153140  39097    0  0  0 136058 264255 141237    0 232937 246712 242208 245621 246646 98736.3 273975 113033    0  11194    0 2000028
 11891.7  86389 152996  38713    0  0  0 136972 261021 140506    0 230996 244745 239358 244133 246210 113783 268859 115302    0  11173    0 2000028
 11893.7  85533 151871  38977    0  0  0 134423 256491 137351    0 225565 238272 233730 237874 240267 99089 263603 112531    0  11067    0 2000028
 11895.6  83770 149196  39351    0  0  0 127545 243799 129705    0 215437 227906 223799 226991 232006 115844 250792 106498    0  10860    0 2000029
 11897.7  86780 154970  39406    0  0  0 130605 244905 131884    0 217532 230455 225314 228715 235254 99842.9 254117 109499    0  11220    0 2000029
 11899.7  86692 155259  39455    0  0  0 125977 240642 128341    0 212231 223252 219090 223437 228184 21476.8 247764 105379    0  11211    0 2000029
 11901.7  86619 155646  39444    0  0  0 121522 232763 124357    0 206578 218793 213567 218808 221440 28058.6 240733 102108    0  11201    0 2000029
 11903.6  86564 156143  39391    0  0  0 115813 224172 119353    0 197427 209057 204156 209982 211258 58979.3 230198 97616.4    0  11189    0 2000028
 11907.5  86432 157396  39346    0  0  0 106338 202649 107924    0 179093 188750 184381 188007 192497 85484.8 208277 88450.2    0  11169    0 2000027
 11913.3  86411 158324  39426    0  0  0 99366.3 189126 100438    0 167461 176061 171829 177052 179396 43447.5 194907 81414.9    0  11166    0 2000028
 11919.6  86309 157844  39333    0  0  0 103677 196742 104436    0 173763 183716 178637 184263 186929 71419.9 202596 86165.4    0  11155    0 2000028
 11926.3  86198 157041  39272    0  0  0 111116 210214 112198    0 186489 196686 191073 196205 200587 37068.5 215782 91768.8    0  11135    0 2000029
 11933.5  86081 156082  39199    0  0  0 118121 223807 120105    0 198498 209843 204643 210146 213756 19060.7 231794 99065.5    0  11126    0 2000028
 11941.2  86043 155339  39305    0  0  0 124687 239988 128625    0 212828 224321 219786 224836 226095 40857.2 248193 103976    0  11121    0 2000028
 11949.3  85946 155120  39251    0  0  0 130348 247409 132336    0 216913 231186 225688 230246 234429 22046.5 253568 108188    0  11095    0 2000028
 11957.9  85844 157299  39177    0  0  0 125683 239076 127997    0 211589 224404 219751 223513 227193 33816.8 246700 105766    0  11081    0 2000028
 11967.1  85750 157599  39256    0  0  0 126920 239118 128188    0 211560 223677 219124 222838 227116 89599.7 246002 106103    0  11070    0 2000028
 11976.8  85610 157877  39001    0  0  0 123832 236188 126097    0 208442 221298 217338 220703 223806 31252.1 243360 104368    0  11062    0 2000028
 11987.1  85218 157994  39171    0  0  0 119850 229059 121972    0 201510 213720 208887 213467 216586 18069.4 235684 99614.4    0  11005    0 2000028
 11997.8  85332 159136  39123    0  0  0 116147 221675 118079    0 196329 207582 203553 207468 211160 91267.1 229021 97655.4    0  11014    0 2000029
 12008.9  85207 159326  39138    0  0  0 114494 222079 118344    0 194695 207272 200909 207042 208656 93522 226917 94741.4    0  10952    0 2000028
 12020.5  85068 159268  39072    0  0  0 119303 225562 120038    0 199205 210296 205611 209635 215099 78238.6 230448 98852.6    0  10978    0 2000029
 12032.5  84936 159183  39048    0  0  0 119772 229638 122802    0 202921 214638 210466 214578 218461 96008.2 237648 100879    0  10957    0 2000029
 12044.9  84827 159218  39026    0  0  0 123862 235588 126532    0 207246 219006 214125 218295 222025 18419.4 240798 104282    0  10940    0 2000028
 12057.7  84667 159392  38986    0  0  0 122350 235653 126640    0 208440 221350 217005 220266 223140 89649.5 242747 103480    0  10920    0 2000028
 12070.9  84513 159612  38875    0  0  0 123634 236176 126863    0 209613 221274 216505 221500 223938 72869.5 242726 103700    0  10891    0 2000029
 12084.5  84358 159800  38774    0  0  0 124440 237357 126799    0 208223 220353 215899 220648 224164 108406 243105 103427    0  10864    0 2000028
 12098.9  84187 160110  38649    0  0  0 123035 236258 126213    0 207607 219769 216104 219531 222593 102780 241976 102581    0  10836    0 2000028
 12113.7  83945 160347  38707    0  0  0 124151 233845 124276    0 207797 218829 214289 218279 222980 89554.7 241055 104480    0  10792    0 2000028
 12129  83832 160773  38494    0  0  0 122454 233298 125294    0 206660 218605 214296 218965 221597 21837.5 241015 103350    0  10776    0 2000028
 12144.8  83489 160741  38446    0  0  0 122703 234965 125295    0 207676 219046 214540 218550 221282 47253 239703 101484    0  10738    0 2000028
 12161.2  83481 161304  38368    0  0  0 122460 236828 126391    0 208438 221850 216180 221223 223970 23182.3 245256 104164    0  10739    0 2000028
 12178.2  83178 161325  38258    0  0  0 122937 237537 126909    0 208931 221015 216206 221671 222575 95472.3 244113 102004    0  10696    0 2000029
 12195.6  83129 161856  38273    0  0  0 125026 238082 127321    0 211657 223897 217831 223118 225828 19218.2 244464 105350    0  10681    0 2000028
 12213.3  82932 162151  38207    0  0  0 127995 239639 128135    0 211241 223370 219333 223330 228441 108940 246124 107131    0  10653    0 2000029
 12231.5  82640 162278  37911    0  0  0 125631 239985 127906    0 211890 223978 218853 223102 225662 30601.6 246354 105357    0  10613    0 2000028
 12250.4  81941 161571  36862    0  0  0 123246 237910 127082    0 212062 222914 217730 222678 225023 33774.3 246219 104788    0  10522    0 2000029
 12269.6  82513 163610  37963    0  0  0 125337 239751 128318    0 212108 224181 218866 223272 226731 30757.2 245834 105061    0  10583    0 2000029
 12289.6  82242 163873  37807    0  0  0 124546 239996 128007    0 211370 223205 218991 223918 223804 17107.8 245277 103938    0  10553    0 2000029
 12309.9  81949 164267  37683    0  0  0 126656 239025 127690    0 211570 224072 219787 223206 227804 23550.6 246599 106788    0  10510    0 2000028
 12330.6  81657 164484  37435    0  0  0 124244 239569 128060    0 210900 222335 219306 222859 224744 88543.1 245705 104065    0  10463    0 2000028
 12351.8  81457 164895  37556    0  0  0 125707 240317 128455    0 211214 223812 218126 222948 226051 16362.7 245535 103578    0  10397    0 2000029
 12373.3  81211 165179  37449    0  0  0 126394 240171 129515    0 213081 224905 220627 225084 228860 29361.7 247976 105414    0  10362    0 2000028
 12395.4  80862 165316  37185    0  0  0 125596 240421 128679    0 212013 224133 219323 223717 226689 29188.3 246071 104644    0  10343    0 2000028
 12417.9  80593 165638  37091    0  0  0 127503 240677 129394    0 213745 225477 221386 226256 229746 32761.2 248137 107034    0  10308    0 2000029
 12422.6  80556 165736  37018    0  0  0 127064 241302 129654    0 212740 224299 221235 225022 230051 26093.7 247544 107182    0  10305    0 2000028