File: example/Fe/Fe_200_05_01.xdi
# XDI/1.0 GSE/1.0
# Scan-start_time: 2024-10-02T19:22:59
# Column.1: energy eV
# Column.2: I0_eh2
# Column.3: I1_eh2
# Column.4: IX_eh2
# Column.5: IR_eh2
# Column.6: c8
# Column.7: c9
# Column.8: fluo01
# Column.9: fluo02
# Column.10: fluo03
# Column.11: fluo04
# Column.12: fluo05
# Column.13: fluo06
# Column.14: fluo07
# Column.15: fluo08
# Column.16: fluo09
# Column.17: fluo10
# Column.18: fluo11
# Column.19: fluo12
# Column.20: fluo13
# Column.21: I0_eh1
# Column.22: I1_eh1
# Column.23: IX_eh1
# Mono.name: Si 111
# Mono.d_spacing: 3.134692
# Mono.notes: LNT cooled
# Beamline.name: BM08-LISA
# Facility.name: ESRF
# Facility.xray_source: Bending magnet
# ---------
# BraggEnergy I0_eh2 I1_eh2 IX_eh2 IR_eh2 c8 c9  fluo01  fluo02   fluo03 fluo04  fluo05  fluo06  fluo07  fluo08  fluo09   fluo10  fluo11  fluo12 fluo13 I0_eh1 I1_eh1 IX_eh1
  6969.77 1123140 188045 395196    0  0  0 2026.97 1783.9 1187.83    0 1805.49 1516.34 2293.8 1329.8 2965.58 4842.25 2141.2 2885.56    0 615811    0 5000069
  7009.43 1129027 198207 417171    0  0  0 1826.55 1517.99 984.444    0 1627.39 1331 2128.29 1302.83 2616.5 3222.07 1801.73 2704.55    0 617488    0 5000069
  7049.29 1134776 209080 439767    0  0  0 1607.28 1420.54 870.64    0 1293.19 1151.69 2018.96 1190.4 2277.72 3625.46 1622.41 2662.41    0 618977    0 5000069
  7089 1140240 220375 461406    0  0  0 1381.58 1437.2 819.748    0 1313.62 1024.55 1949.56 1138.42 2044.87 3972.58 1513.91 2400.89    0 620107    0 5000068
  7109.59 1142612 225521 436736    0  0  0 1266.22 1424.49 808.01    0 1214.72 1051.43 1936.38 1242.24 1832.12 2117.65 1588.33 2193.79    0 619709    0 5000068
  7110.76 1142075 225047 393811    0  0  0 1219.07 1416.99 795.061    0 1289.79 1119.79 1915.14 1226.27 1852.52 3860.96 1605.16 2133.78    0 618174    0 5000069
  7111.9 1141281 224405 345941    0  0  0 1314.27 1552.06 799.54    0 1446.88 1186.25 2078.18 1362.69 1890.3 3131.82 1749.36 2267.88    0 615473    0 5000068
  7113.09 1140402 224039 319249    0  0  0 1534.89 1586.29 932.219    0 1532.21 1302.03 2134.23 1525.22 2234.07 3297.88 1790.77 2303.44    0 612819    0 5000068
  7114.26 1139931 223893 303297    0  0  0 1463.96 1715.09 906.482    0 1604.71 1350.99 2209.18 1532.28 2270.91 2880.53 2010.48 2288.24    0 611228    0 5000069
  7115.41 1139742 223900 295881    0  0  0 1391.68 1832.25 945.304    0 1546.01 1434.09 2281.5 1741.08 2196.87 3116.21 1996.54 2153.46    0 610400    0 5000069
  7116.62 1139543 223738 285433    0  0  0 1403.22 1795.56 891.544    0 1632.34 1447.4 2214.91 1666.95 2201.58 2661.85 2084.52 2177.38    0 609434    0 5000068
  7117.77 1139262 223431 262861    0  0  0 1363.75 1830.99 946.62    0 1564.61 1470 2273.61 1654.35 2245.06 4527.44 2017.62 2185.98    0 608158    0 5000069
  7118.94 1138934 223085 235194    0  0  0 1604.94 1880.76 995.266    0 1660.91 1463.99 2282.93 1648.39 2330.45 380.044 2066.76 2261.78    0 606807    0 5000068
  7120.16 1138605 222634 207898    0  0  0 1487.75 1892.27 996.893    0 1742.27 1529.41 2317.95 1850.1 2424.93 1222.74 2229.52 2267.88    0 605427    0 5000068
  7121.31 1138203 222174 187213    0  0  0 1480.83 1975.24 1011.64    0 1795.26 1595.25 2424.85 1854 2316.2 1903.81 2288.87 2244.29    0 603980    0 5000068
  7122.51 1137741 221627 173180    0  0  0 1506.77 2124.27 1054.01    0 1894.05 1777.88 2514.15 1976.42 2478.26 1831.61 2404.03 2172.33    0 602352    0 5000068
  7123.71 1137206 220843 162738    0  0  0 1782.37 2326.64 1258.92    0 2057.8 1986.1 2658.57 2174.9 2890.62 1869.75 2679.01 2286.81    0 600407    0 5000068
  7124.88 1136512 220041 154670    0  0  0 1940.93 2681.72 1370.45    0 2320.06 2227.32 2941.02 2478.21 3095.26 1930.85 2928.6 2365.07    0 598077    0 5000068
  7126.1 1135729 219263 146956    0  0  0 2089.33 2915.87 1575.97    0 2645.94 2601.42 3115.7 2833.83 3403.44 2147.47 3430.89 2400.34    0 595425    0 5000069
  7127.29 1135083 218677 138232    0  0  0 2280.98 3328.32 1767.59    0 2900.89 3013.33 3570.57 3230.94 3913.39 2178.78 3845.85 2441.59    0 592955    0 5000069
  7128.5 1134903 218586 129172    0  0  0 2752.87 3872.99 1959.47    0 3423.89 3553.83 3922.67 3831.16 4385.64 3340.4 4673.5 2632.91    0 591947    0 5000069
  7129.7 1134777 218703 122491    0  0  0 2899.92 4206.32 2147.57    0 3762.52 3938.61 4423.67 4235.53 4981.76 3113.07 5102.96 2750.61    0 591397    0 5000069
  7130.9 1134253 218321 121420    0  0  0 3050.48 4445.33 2292.44    0 3989.8 4174.26 4673.64 4466.53 5186.47 5279.37 5423.88 2743.32    0 589670    0 5000069
  7132.13 1133626 218021 126764    0  0  0 3163.75 4852.61 2505.83    0 4185.77 4498.11 4864.65 4713.87 5392.62 4032.25 5773.2 2775.81    0 587611    0 5000069
  7133.31 1133239 218411 134500    0  0  0 3264.56 4847.07 2510.76    0 4288.6 4585.02 4836.54 4829.15 5507.22 4359.56 5637.42 2872.75    0 586295    0 5000068
  7134.52 1133244 218833 140452    0  0  0 3212.37 4648 2518.04    0 4235.22 4439.51 4820.84 4769.08 5412.54 2794.43 5752.57 2840.85    0 585892    0 5000069
  7135.72 1133420 219327 143495    0  0  0 3074.18 4774.91 2421.2    0 4079.34 4440.15 4825.87 4784.5 5367.47 4188.69 5538.45 2858.91    0 585899    0 5000068
  7136.92 1133721 219589 143471    0  0  0 3057.26 4574.53 2317.56    0 4128.52 4480.96 4762.35 4652.99 5245.19 2906.8 5464.64 2800.25    0 586082    0 5000069
  7138.14 1134040 219892 141419    0  0  0 3034.75 4699.6 2390.86    0 4207.87 4381.42 4879.82 4648.02 5175.78 3204.8 5633.41 2809.52    0 586341    0 5000069
  7139.33 1134264 220456 139138    0  0  0 3090.89 4592.24 2279.76    0 4008.3 4448.67 4706.96 4621.66 5111.59 4124.76 5386.91 2904.54    0 586561    0 5000069
  7140.56 1134512 221096 137884    0  0  0 3018.66 4349.23 2246.78    0 3882.83 4139.62 4465.52 4336.96 4940.81 3904.69 5280.05 2813.63    0 586755    0 5000068
  7141.77 1134748 221761 138310    0  0  0 2813.26 4231.12 2262.8    0 3856.81 4039.43 4388.37 4313.13 4756.35 5485.34 5205.19 2697.26    0 587015    0 5000069
  7142.95 1135060 222353 139520    0  0  0 2735.47 4249.88 2146.24    0 3718.4 3996.95 4371.87 4282.24 4886.2 3598.78 4979.34 2572.76    0 587378    0 5000069
  7144.21 1135355 223302 140503    0  0  0 2744.4 4038.46 2149.34    0 3749.75 3822.78 4217.39 4041.17 4760.87 5751.79 4839.76 2572.68    0 587782    0 5000069
  7145.39 1135737 223995 139768    0  0  0 2765.47 3915.46 2060.96    0 3494.45 3775.8 4238.29 4007.77 4628.01 6016.33 4801.4 2598.76    0 588340    0 5000069
  7146.6 1136082 224831 137666    0  0  0 2531.56 3955.7 1988.49    0 3516.21 3687.25 4176.98 3894.58 4529.48 4076.58 4653.96 2470.44    0 588896    0 5000068
  7147.82 1136426 225524 134736    0  0  0 2584.01 3892.7 1993.38    0 3358.66 3562.61 4059.84 3863.14 4448.62 4915.18 4529.94 2480.72    0 589467    0 5000069
  7149 1136745 226042 132337    0  0  0 2568.27 3884.33 1967.3    0 3396.5 3538.04 4074 3831.13 4364.37 5283.19 4487.42 2519.62    0 589918    0 5000068
  7150.2 1137002 226607 131113    0  0  0 2666.87 3760.77 1921.99    0 3243.53 3431.29 3917.81 3640.18 4261.64 4040.57 4458.22 2530.29    0 590187    0 5000069
  7151.39 1137187 227027 130291    0  0  0 2460.21 3805.58 1913.98    0 3317.18 3486.77 3951.33 3729.32 4230.14 5041.76 4365.55 2526.57    0 590252    0 5000069
  7152.59 1137324 227453 129838    0  0  0 2428.27 3801.36 1852.64    0 3268.07 3458.13 3790.52 3674.3 4088.66 5286.42 4402.18 2448.88    0 590128    0 5000069
  7153.8 1137490 227665 129923    0  0  0 2348.53 3590.56 1968.17    0 3300.76 3402.49 3884.82 3666.99 4023.51 4744.58 4292.59 2484.5    0 590054    0 5000069
  7163.56 1138069 230360 135003    0  0  0 2246.82 3397.6 1807.23    0 3104.56 3155.52 3679.19 3434.69 3906.37 5394.42 4189.47 2413.99    0 588468    0 5000069
  7174.68 1138805 232237 145762    0  0  0 2530.42 3789.72 1946.66    0 3309 3565.45 4055.09 3788.49 4229.15 4668.54 4594.13 2435.24    0 586300    0 5000069
  7187.13 1140801 235838 147700    0  0  0 2605.58 4101.5 1998.73    0 3612.52 3672.49 4309.03 4127.68 4453.55 5488 4802.91 2372.91    0 587016    0 5000069
  7200.75 1143207 240896 150248    0  0  0 2518.78 4009 2056.81    0 3633.8 3848.76 4251.8 4067.86 4475.28 5701.78 4871.55 2412.06    0 588723    0 5000068
  7215.4 1144998 244865 134510    0  0  0 2446.2 4058.45 2112.58    0 3511.25 3621.98 4135.38 3949.04 4288.43 4811.3 4585.4 2298.49    0 588160    0 5000068
  7231.29 1147400 249962 157769    0  0  0 2401.36 4100.78 1896.3    0 3485.76 3686.22 4135.95 3856.59 4207.62 7082.67 4733.2 2145.01    0 588861    0 5000069
  7248.46 1149532 254738 163145    0  0  0 2471.25 4153.77 2013.64    0 3604.78 3850.56 4275.77 4145.21 4244.53 3745.92 4856.66 2384.54    0 588425    0 5000068
  7266.91 1152383 261217 163575    0  0  0 2578.99 4293.43 2241.6    0 3784.41 4098.87 4343.28 4384.34 4429.96 5910.48 4967.84 2250.45    0 589552    0 5000069
  7286.63 1154831 267500 150280    0  0  0 2488.14 4279.94 2225.53    0 3900.13 4108.52 4589.51 4303.43 4481.12 4166.54 5006.35 2323.5    0 589337    0 5000069
  7307.59 1157763 274639 180939    0  0  0 2430.97 4364.68 2159.06    0 3925.06 3903.65 4365.18 4354.43 4367.46 5558.73 5009.22 2163.89    0 589875    0 5000068
  7329.83 1157827 278666 183526    0  0  0 2431.34 4390.91 2184.61    0 3904.71 3968.6 4298.1 4355 4363.57 3887.5 5206.65 2011.43    0 582785    0 5000068
  7353.31 1164055 290597 178528    0  0  0 2451.76 4562.87 2146.17    0 3984.14 4293.33 4522.95 4488.48 4576.79 4028.09 5245.46 2111.79    0 590751    0 5000068
  7377.77 1167155 299459 189577    0  0  0 2722.75 4646.89 2287.83    0 4084.14 4242.35 4597.84 4580.64 4523.27 4081.5 5293.03 1993.62    0 590720    0 5000068
  7403.38 1170477 308897 204658    0  0  0 2468.99 4730.35 2323.18    0 4107.82 4155.33 4593.2 4836.27 4709.05 3502.38 5560.52 1948.52    0 590861    0 5000068
  7429.98 1174032 319374 212605    0  0  0 2597.81 4719.24 2348.05    0 4195.65 4498.34 4763.86 4691.05 4608.64 3093.06 5451.76 2033.99    0 591364    0 5000069